(dp0
S'comment'
p1
S'N/A'
p2
sS'author'
p3
S'alin.draghia@gmail.com'
p4
sS'post_proc'
p5
cobject_recognition_toolkitd_ext
GroupRectanglesNms
p6
(tRp7
(S'22 serialization::archive 10 1 0\n0 1 0\n1 1 0.20000000000000001'
p8
tp9
bsS'classification_treshold'
p10
F-0.5
sS'image_scanner'
p11
cobject_recognition_toolkitd_ext
DenseImageScanner
p12
(tRp13
(S'22 serialization::archive 10 1 0\n0 1 0\n1 0 0 64 128 2 2 0 0'
p14
tp15
bsS'pyramid_builder'
p16
cobject_recognition_toolkitd_ext
FloatPyramidBuilder
p17
(tRp18
(S'22 serialization::archive 10 1 0\n0 1 0\n1 1.2000000000000002 0 0 63 127 0 0'
p19
tp20
bsS'classifier'
p21
cobject_recognition_toolkitd_ext
LinearClassifier
p22
(tRp23
(S'22 serialization::archive 10 0 0 -3.7872622 3780 0 -0.11084354 -0.085398264 -0.22088908 0.15019757 0.19755214 -0.059475534 0.03415373 -0.14722238 0.063816182 0.19646361 0.033944696 -0.19434468 -0.21657367 -0.073984638 0.23583879 -0.12039949 0.045894265 0.15428688 0.14732777 -0.12633507 -0.018054623 0.027283037 0.014819423 -0.11099714 0.029420093 -0.023898669 0.042550519 0.19143763 -0.03197027 0.12532875 0.1769799 -0.22390187 0.19278435 0.061255243 0.052941211 -0.15692982 -0.20667382 -0.0011036348 0.090439275 0.04948958 0.27316651 0.095817052 -0.14786489 0.029370414 0.13432577 0.093308985 0.0078216419 0.0036521056 0.12290948 -0.05996646 0.053396884 0.063729554 0.15165034 -0.024464166 -0.1665225 -0.063772015 -0.019460689 0.13633946 -0.0061768494 0.19360596 -0.041507121 -0.14851961 0.0073253163 -0.028358107 0.084150434 -0.074141003 0.21734901 -0.059518106 -0.087030433 -0.023308223 -0.04345477 0.18281588 0.099637181 -0.1517262 -0.136843 0.12820557 -0.0027706341 0.036402699 -0.12867667 -0.015194022 0.046426389 0.17737097 -0.08132074 0.066330776 0.025375372 0.017179104 -0.029309884 0.2358344 0.028504606 0.22662254 -0.096009716 0.055701558 0.01921412 0.11084612 0.071101308 0.20347041 0.12199928 0.044427708 -0.23601815 0.072438583 -0.21214069 -0.026861958 -0.020834712 -0.21345977 0.04413715 -0.10705402 0.047717281 0.08991763 0.067271993 0.16530648 0.075061306 -0.12196983 0.075821109 -0.14424093 0.20534234 -0.19899108 -0.075915858 -0.015768535 -0.11004581 -0.1977603 -0.087813638 -0.11415444 0.20205979 -0.069859184 -0.082335219 0.03204833 0.16297501 -0.044694904 -0.10992377 0.038169347 0.12014401 -0.075046629 0.091601051 0.046838891 -0.06276866 0.088363975 -0.15631709 0.057277016 0.039155871 -0.13872758 0.086237073 -0.06555105 -0.03695948 -0.15762936 -0.1448065 0.23228879 0.015173734 0.30157438 0.039174724 -0.14699671 -0.037050866 0.18334307 -0.049018461 -0.048763484 0.042620674 -0.16837537 -0.14380465 -0.038412042 0.055690039 -0.35783276 -0.037693597 0.056539837 0.0013152581 0.20154059 0.10390139 -0.057653151 0.19620736 -0.13497999 0.23334096 0.27567035 -0.12082992 -0.25402483 -0.083098456 -0.020281376 -0.20227766 0.0037018354 -0.04056973 0.096956901 -0.12109713 0.18177424 -0.12148151 -0.042478815 -0.2862044 0.13969931 0.0091961809 0.15832058 0.024241747 -0.066575028 0.051357843 -0.026860684 -0.13083149 -0.04502872 -0.039182305 0.11017492 -0.20157212 -0.084347814 0.20748296 -0.032724503 0.045821823 -0.12359516 0.00028580576 0.040102977 0.084472172 0.1417748 -0.019293599 0.2766141 -0.04384144 0.022432623 0.23592097 -0.18546982 -0.077658974 -0.040130816 -0.1094798 0.0040314291 -0.22543222 -0.13806641 -0.13557892 0.12283723 -0.024258133 0.13368051 -0.13363838 0.00105979 -0.076058365 0.012468145 -0.0048464984 -0.061209001 0.018572232 -0.24200636 0.1364475 -0.11171772 -0.11343184 -0.041916151 0.17254987 0.037065241 -0.061705094 -0.039616644 0.12773395 0.20154655 0.13324253 -0.024237873 0.074499898 0.046023972 0.15224802 -0.059650775 -0.170692 0.12284528 -0.22734357 0.081812769 0.07026156 -0.19557111 -0.053973526 -0.24223259 -0.017514657 0.046362154 -0.11395837 0.090449773 0.15583254 0.0025031744 -0.20252523 0.11552131 -0.10439618 0.08062607 -0.047388062 -0.10902219 0.012594162 0.2195344 -0.010801813 -0.19891435 0.030018944 -0.11589008 0.070797369 0.2586574 0.055094559 0.17066228 0.089513563 0.20767362 0.008331337 0.13203689 -0.086927652 -0.010467377 0.079639874 0.044392686 -0.15548921 -0.087700181 -0.0058429074 -0.014909377 -0.05798205 0.028035905 -0.074699648 0.00061968609 -0.080737129 0.03237322 0.048587848 -0.0042804526 0.0089240186 0.12730733 0.055732448 -0.0040077511 0.2431792 -0.061215203 -0.043148775 0.062631093 0.1083333 -0.097518802 0.018406594 -0.23876436 0.13569622 -0.24365114 0.25874507 -0.11625044 -0.36537093 0.026014689 0.24501503 0.03592068 0.010486648 -0.23912944 -0.13433541 0.15160988 -0.069011956 -0.19665325 -0.031456374 -0.026580993 -0.14746289 -0.036715053 -0.22766063 0.02605664 -0.23798569 0.0091640968 -0.18858808 0.19787672 -0.23889796 0.090287335 0.15442264 0.071762629 -0.11346713 -0.16889606 -0.12287418 0.13320908 0.074850008 -0.0096352771 0.0031486594 -0.04940879 0.049549557 0.03347896 0.075477578 0.29203695 -0.13456744 0.035537109 -0.074802779 0.16271265 -0.11411027 -0.1163312 0.20466901 0.0042835041 -0.077937432 -0.020197796 0.0021598728 -0.067950636 0.099475749 0.12670434 0.17716262 0.080813326 -0.038954027 -0.044755585 0.053156827 0.00089355971 -0.1690806 0.0010157519 -0.033460416 0.12800145 0.12108683 -0.03779738 -0.12995474 -0.086350374 -0.056159034 0.12599057 0.057188958 -0.16157235 -0.15560193 -0.15579291 0.044921219 0.23269545 0.03073688 0.06957262 -0.0055316179 0.23283456 -0.069353215 0.17875436 -0.088504948 0.18693995 0.2770398 -0.083828427 -0.031098722 -0.051846992 0.012676713 -0.1838652 -0.17934611 -0.054564156 0.066995166 0.16966154 0.00088608183 -0.26748639 -0.15458895 -0.056189679 0.052122403 -0.3135215 -0.038830899 0.010762303 -0.19999342 -0.053903829 0.081707284 -0.18849906 0.067582123 0.081488892 0.021552969 -0.17110318 -0.27903163 0.075531714 -0.035632674 0.14657807 0.098806247 0.0066279154 -0.019269131 -0.12529793 0.0080964332 -0.10143493 0.097433917 -0.026616409 0.075907953 0.093107156 -0.12793541 0.16677895 -0.086914673 0.08469525 0.16254826 -0.01286543 -0.15155688 0.071340509 -0.28135189 -0.072487831 0.12341377 -0.083130904 -0.18456356 -0.089064941 -0.063216649 0.17613485 -0.23036394 0.12776631 -0.067488782 -0.29160985 0.042080592 -0.11466212 0.12063852 0.030689076 0.13667226 0.22133285 0.078027695 0.1945703 -0.00019608652 0.077954009 0.079088934 -0.15444928 0.064449519 -0.064801276 0.025298132 0.036235768 -0.12235533 -0.070047759 -0.12659657 0.086887829 0.0261395 0.030092798 0.16140686 -0.28144261 -0.067881316 0.21134304 0.069367886 -0.018404813 0.050877392 0.068229318 -0.050731756 0.092514582 0.026638722 -0.13314037 0.092627317 0.0098618735 0.13760342 0.23641841 0.26374972 -0.043563332 0.092956856 0.050997738 0.0011316766 0.15497264 0.088380687 -0.18572204 0.17278172 0.10012347 0.1890289 -0.030293714 0.044944897 -0.17256877 -0.040352259 -0.044567063 -0.022659251 0.19852549 -0.162112 0.14444876 -0.10299546 0.1078955 -0.086868063 -0.14213216 0.099520735 0.19461413 -0.23079623 -0.0079722144 -0.045479376 -0.18130997 -0.098818772 0.0022092098 -0.0061659487 0.13825931 -0.18778913 -0.10851365 -0.11171152 0.10494027 -0.1078769 0.1027717 -0.093086265 -0.019630004 -0.11880537 0.02324021 -0.047344405 0.018853553 -0.029258786 -0.20757607 -0.025944112 0.082294084 -0.10051067 0.027026018 0.29239649 -0.036627922 -0.078910224 0.044895712 0.27898923 0.016313177 -0.13883682 0.052299004 -0.093215816 0.17907134 0.070738189 0.12411463 -0.012383597 -0.02498428 0.20858192 0.056022365 -0.0072820298 -0.028021673 0.026900299 -0.30087131 -0.14940754 -0.00058313645 0.074911378 0.076986 -0.17771517 -0.04103829 0.14702836 0.11819373 0.081791066 0.16561164 -0.18340813 -0.17863195 0.062157314 0.19478858 0.19193852 -0.12807573 -0.13350646 -0.1830118 0.044028267 -0.11201816 -0.025277847 -0.095725939 -0.30381569 0.021665065 0.045931317 -0.023193626 0.085060142 -0.30129325 -0.16212088 -0.025270417 -0.020428684 0.11233044 0.054563187 0.25656518 0.13979883 0.018945573 0.13850176 -0.14806937 0.17513195 0.24389055 -0.071093887 -0.12224064 -0.15124445 0.10707379 0.090023749 -0.08398068 -0.014444433 -0.29865485 0.013770985 0.032911077 -0.10861416 0.17244798 0.18749122 0.047605697 -0.07434123 0.068516299 0.21340592 0.080673784 0.09421026 -0.14473559 0.099522263 0.14986257 -0.057267547 0.060452376 0.010839744 -0.040719718 0.09904179 0.18511638 0.028744733 -0.20594506 -0.048924047 -0.13159643 0.20375568 0.090294227 -0.012112751 0.061430804 -0.22374493 -0.17517211 -0.021830438 -0.078012228 0.12814245 -0.21804546 0.20818858 -0.16953555 -0.019941011 0.17919236 0.035717573 0.094790794 -0.14349432 -0.25062078 0.27806446 -0.16165622 0.12045125 -0.22091836 -0.1369144 -0.0055870083 -0.14428796 0.025913144 -0.11778599 -0.25126389 -0.1697886 -0.05043105 -0.043837078 -0.15223294 0.020127088 0.10478988 -0.025767099 -0.031434596 0.059258204 0.015827117 0.011868803 -0.179102 0.097354218 0.20858288 -0.17445953 -0.10354499 -0.026179165 -0.0065900441 -0.030680977 0.11143961 0.090944827 -0.03357685 -0.12622221 -0.049564417 0.20357768 0.11998417 -0.064058967 0.039077628 0.038902692 -0.20818748 -0.0073290872 -0.086027168 -0.27548748 0.0049239891 0.15795884 -0.11681721 -0.10426875 0.042815749 -0.0015998383 0.18249856 0.076757379 -0.14400591 0.19470319 0.030345717 -0.031728085 -0.11161677 -0.10510515 0.099397808 -0.023010649 -0.069884896 0.16366349 0.12173782 0.244975 -0.21941347 0.076903269 -0.15756099 -0.03011645 -0.031638701 -0.037097018 -0.11952414 0.2135704 0.083838835 -0.21167052 -0.16377944 -0.0070745554 0.1083801 -0.25819379 0.0044713924 0.18309872 0.05573627 0.12045626 -0.0088691264 0.12129579 0.19496436 -0.0055502723 -0.13150999 -0.056494664 0.0046062283 -0.04007851 0.089129187 0.052347995 0.033948138 0.10785558 0.15472841 0.12899916 0.087722681 -0.27850154 -0.14470243 -0.054918986 -0.076884642 0.13557938 0.014510242 -0.051178437 0.16961175 -0.2225177 0.073380888 -0.27392495 -0.13920371 -0.04321336 0.16417171 -0.18156932 0.023494888 0.08183039 0.18133007 0.17466101 0.0075923051 -0.12838018 -0.018913321 -0.17802157 -0.06296619 -0.097854219 -0.034063116 0.012469858 0.1026451 0.046652529 0.17354 -0.35676718 0.010774104 0.1691422 0.027317943 -0.04197938 -0.19680502 -0.08780323 0.11681934 -0.0090166405 -0.060662471 -0.037439045 0.19954962 -0.31692123 -0.10764889 -0.10519474 0.063151918 -0.11278471 -0.20335267 0.12188827 -0.061757293 -0.1625165 -0.10057756 -0.14654224 0.029401584 0.17319262 -0.16985449 0.024313578 -0.14500307 0.012397302 -0.10801902 -0.14383633 0.067877539 0.1271116 -0.12547252 0.037657406 0.1875376 0.08959841 0.14354773 0.065602146 -0.096179307 0.13695678 0.0333427 -0.20108552 0.14174426 -0.031251885 -0.053271968 -0.088844068 0.080321513 0.18684043 -0.012456144 0.02227008 0.053243812 0.038781881 -0.02092744 -0.092926875 -0.0017696675 0.044550631 0.078711919 -0.030936664 0.076992191 0.28117475 0.00066487322 -0.020333558 -0.12238987 0.034779746 0.034603883 -0.029810365 -0.026525183 -0.036741838 0.025602331 -0.18962592 0.089079559 0.019073408 0.36127463 0.18491231 0.14783676 -0.033083007 0.00018036892 0.0076865894 0.13180272 -0.21375087 0.024759021 0.25475678 0.053031635 0.10626415 -0.1175572 -0.0083485208 -0.024100307 0.066728853 0.14299278 -0.18927427 0.034625731 -0.02235095 -0.18179356 -0.072534353 -0.048337404 -0.19328828 -0.080038078 -0.0050236587 -0.15427236 0.010465099 -0.074060239 -0.037893955 -0.026039409 0.15320936 -0.033582803 0.048220877 0.065677762 -0.05185765 0.13723391 0.019253111 0.2587221 -0.022047879 -0.17931758 -0.09563116 -0.23240528 0.27612668 -0.13617902 -0.00437755 -0.061220415 0.15256611 -0.062417321 -0.059455276 0.13740566 -0.15121174 0.27332351 -0.066643901 -0.15816216 -0.045716215 0.027045792 -0.082598396 0.046709612 -0.084089406 -0.19887909 0.057073217 -0.036915306 0.00034404002 -0.20341919 -0.044437092 -0.045616984 -0.09312655 -0.06656836 0.07575459 -0.11408491 -0.0096068447 -0.026332876 0.077716984 0.089707732 -0.049366873 -0.06744609 -0.16002965 -0.15900901 0.020096432 -0.089922167 0.075627193 0.15019166 0.054812543 -0.005912412 -0.067833923 0.25476807 0.0083978055 0.0095785335 -0.0066980352 0.10517088 -0.12050314 0.11675939 -0.12882547 0.049765624 0.16301619 0.14427899 -0.0063349525 -0.067248963 -0.040387366 -0.05369205 -0.11780871 -0.038603052 -0.045005511 -0.15710358 0.074365087 0.1368209 0.017389812 0.10957055 0.094386503 0.33136374 -0.029532159 -0.038151003 -0.1074843 0.15515766 -0.037941597 0.040865824 -0.10186329 0.11519189 0.05173213 0.1056721 0.036992744 0.074842356 -0.044849057 0.067006834 0.10429889 0.10226229 -0.19474773 -0.32116684 -0.1497553 0.044005346 -0.15272287 -0.017731808 -0.18831885 -0.29422355 0.06196015 -0.049686659 -0.048299253 -0.16473597 -0.10625403 -0.048136499 -0.10078409 0.0096359961 -0.15363209 0.14851692 0.24558078 0.3629123 -0.0035783052 -0.16390225 -0.024749763 0.1004956 0.11753203 0.050928529 -0.067703851 -0.10534848 0.095105499 0.17554621 0.26456138 0.02216926 -0.098200135 -0.19512032 0.0074670012 -0.18015131 0.066903166 0.094553672 -0.11697916 0.071343586 0.01284675 -0.042126253 -0.075226799 0.14766374 -0.26054046 -0.091172181 -0.08998841 -0.13669567 -0.12611163 0.19955514 0.16462393 0.020552378 -0.083599105 0.019918939 0.0070875338 0.078980446 0.16271527 0.17061956 -0.037652265 -0.11209395 -0.059697568 0.1335824 0.14390929 0.22438826 -0.011717385 0.0056980541 0.18837768 -0.14416477 -0.021869993 -0.088854305 0.080408044 0.0038393154 -0.0017971394 0.13173927 0.08340773 0.06448634 0.31433699 -0.06421262 -0.24904077 0.10768045 0.16919065 -0.085347332 0.080455147 0.0021974419 -0.12519647 0.041821152 -0.067464598 0.047798812 -0.061333347 0.13869801 -0.26841602 -0.012448264 -0.02630168 0.14763993 0.10982845 0.14440618 -0.11499688 0.01981587 0.16036081 -0.21582855 -0.091962397 -0.0041649379 -0.20623991 -0.035241153 -0.111759 0.047267295 -0.022034308 0.032918178 -0.014259848 -0.082664527 -0.013602764 -0.13433596 -0.029199006 -0.071400069 -0.045486864 0.13369815 0.14936955 0.038197074 0.082920432 -0.16405863 0.13151279 0.12947196 -0.20758256 0.11430331 0.071010344 0.19581296 -0.12742665 -0.021780303 0.031242294 0.16439065 0.175861 -0.058268301 0.0056668506 -0.037791442 -0.10160551 -0.25804579 0.15188372 -0.081517875 -0.0029607781 0.13719589 0.087798424 -0.47287419 -0.2315706 -0.1215914 0.059289519 -0.35241759 -0.11481871 -0.14465018 -0.033517431 -0.0010134267 0.15021472 0.056274693 0.11126386 0.044881105 -0.047262907 0.07327427 0.048934828 -0.1906559 0.13395023 -0.072700165 0.41003779 0.2941131 0.13200589 0.12894785 -0.24957876 -0.27288541 -0.069714099 0.12799832 -0.086805984 0.4456965 0.15953586 -0.1039891 -0.24595909 -0.051757593 -0.082522668 -0.077758536 0.23195498 -0.05080802 -0.0022131065 -0.13456134 0.097254127 -0.024440974 -0.074198507 -0.094236664 0.11918479 -0.026025599 -0.33676881 -0.11872602 -0.025076102 0.053528659 0.094383419 0.07858967 0.11208871 0.099716343 0.33441645 0.11141995 -0.046819732 -0.18216813 0.22295022 -0.040902991 0.08592166 0.11634042 0.065044992 -0.0055442792 0.063890308 -0.10823396 0.11504095 0.08055032 -0.22506709 0.25086018 0.17930089 0.2886804 -0.050791293 0.14718616 0.30120891 0.28564736 -0.038146287 0.090925492 -0.095532879 0.18029284 -0.16944969 0.030203175 0.18103528 -0.030727584 -0.0036574963 -0.17299139 -0.10718223 -0.063569784 -0.2525509 0.073294714 -0.05917839 0.23080033 0.51934987 0.46482795 -0.063629404 0.0038762451 -0.016063372 0.26693353 -0.035421334 0.060043875 0.15585937 0.32572904 -0.096170343 -0.21036303 -0.19106399 0.10688455 -0.19550049 -0.077578411 0.072527528 0.34633994 0.19207086 0.20548809 0.08533667 0.10919709 -0.026253592 0.15524594 -0.02457417 -0.078420788 0.015246472 -0.1129219 0.19010466 -0.087166645 0.11318486 0.092421725 -0.027245359 -0.023366652 0.071351908 0.21734715 -0.087470196 -0.20558816 -0.16312604 0.13962221 0.058676038 -0.090877473 -0.15044154 -0.010075399 -0.010296517 -0.0060568801 -0.24453086 -0.14907895 -0.015058815 -0.048940632 0.13086385 -0.023731794 0.12677871 0.24598652 -0.021795584 -0.11421213 -0.19148582 0.045446735 -0.12509722 0.10358778 0.14162014 0.10526631 0.33309329 -0.0031130153 0.012152533 -0.074770965 -0.0016898364 0.11877086 0.10560546 -0.16681226 0.04114639 0.15117618 -0.18492603 0.13381672 -0.0023693179 -0.19190995 -0.054720718 0.085571066 0.11162717 -0.00015401404 0.02852061 -0.14881353 -0.15664485 0.032033633 -0.083227433 0.020722693 -0.020358026 0.1685892 -0.1058936 0.32459036 -0.015230415 0.11101229 -0.27559802 0.056122459 0.12752487 0.027033797 0.12005852 0.030223565 0.10656422 -0.0019797806 0.016238099 -6.6131281e-005 0.064412765 0.26247895 0.00093016058 -0.12266158 0.13042256 0.03121119 -0.0931364 0.18931481 -0.25895056 0.097828753 -0.06927596 -0.063811675 -0.0032113509 -0.059201691 0.049126107 -0.050378289 -0.19436066 0.042674091 -0.11078969 -0.20262042 -0.091858365 0.40774494 0.23725119 0.30283174 0.11306538 0.02968782 0.096004769 -0.0031963871 0.0016080177 0.1529191 0.12751758 0.27733734 -0.0037046559 -0.079655625 0.11670601 0.10699043 0.22124311 -0.097868972 0.091026068 0.13328809 -0.034541558 0.020616524 -0.027719423 0.14817475 -9.6016656e-006 0.04280315 -0.1435764 0.06425228 -0.048857845 0.12023836 -0.020091917 0.21923497 -0.21110387 0.032401066 0.037234101 -0.20122875 0.01574672 0.068878263 0.25833884 0.15460204 -0.10023042 0.012977252 -0.12487824 0.062751934 0.0046878108 0.23578422 0.25983077 0.23480234 0.066196546 -0.084093221 -0.20930898 -0.055985309 0.20004028 0.11339539 0.1729133 -0.042921118 -0.21175137 0.11633117 -0.080937028 -0.17230684 0.048297796 -0.031392142 0.13767183 0.21378018 -0.024337932 0.10701531 0.17018884 -0.21367349 -0.10357213 0.09197329 0.15050526 -0.2262484 0.056157406 0.013548621 -0.011445262 -0.01467332 0.03530452 0.010066261 -0.10271358 0.013670918 0.063778006 0.072709337 -0.029396573 -0.089822046 0.17345235 -0.011092971 -0.13212775 -0.024877569 -0.20712058 -0.14127553 -0.21386924 0.17367098 0.057196964 -0.22071226 -0.17392112 0.081233062 -0.14814889 -0.16580926 -0.076680802 0.31847319 -0.23356405 0.26489908 -0.01637705 -0.006548625 -0.25129882 -0.0092630191 -0.11339174 -0.23005353 -0.062058676 0.16361031 -0.04158929 0.085350372 0.087432683 -0.17144439 -0.00079083373 0.14160816 -0.12783782 0.011303197 -0.069961376 -0.042952087 0.058912113 -0.45700797 -0.040086705 -0.14763449 -0.062561423 -0.022068096 -0.026909888 -0.13383096 -0.21547578 0.10448577 0.14390028 0.056427471 -0.14769058 0.045276619 -0.1172775 0.10226884 -0.16157255 0.042207561 0.12112321 -0.1494005 -0.0078096874 -0.048523534 -0.0088819489 0.19429857 0.06870646 0.048494305 -0.11568946 0.034784533 0.080012016 0.06412071 -0.22159776 -0.026669327 -0.1708089 -0.12959166 -0.20975982 0.053521566 -0.14838424 0.10610143 0.083698928 0.0040201587 -0.0086108763 -0.091784984 -0.022556061 0.10250241 0.081093654 -0.15303707 -0.079519622 0.2044208 -0.21586362 -0.027234528 -0.13708983 -0.039984439 0.015936963 0.029915139 0.11920595 -0.1608109 0.17055839 0.06674695 -0.15505089 -0.24862409 0.23426139 0.18802372 0.074184969 0.22163084 -0.01976331 -0.12741005 -0.2104172 0.23064433 -0.056211736 0.064513326 0.0028394342 -0.18555938 -0.13220257 -0.042958617 -0.058834787 -0.26156119 -0.1473446 -0.063968569 -0.056605719 -0.27871889 0.18561421 0.21764638 0.077172488 0.15193969 0.06718833 0.060125727 0.089335255 0.096369803 -0.15421347 0.2148959 0.026478153 0.2358299 0.05935768 -0.15870105 -0.0013951142 -0.16084613 0.083466507 -0.048887402 -0.0043496462 0.0072590462 -0.052111451 0.23637825 0.11576082 0.034565955 0.169192 0.024107192 -0.070999064 -0.17998885 -0.33211887 -0.0033162227 -0.31906006 -0.0090053128 -0.055805303 0.07225547 -0.19492526 -0.021137543 0.012472345 0.36501294 0.13170223 0.32616207 0.30040169 0.28319159 0.11863662 0.26048848 0.075513206 0.0063186437 -0.062122282 -0.15371153 0.16172597 0.13047452 0.30228207 -0.0061294311 -0.088104911 0.02832113 0.086229339 0.061964925 0.021147873 -0.1182094 0.10331652 0.024051452 -0.0847167 -0.19078183 -0.011814046 -0.11260486 -0.22674723 0.035697717 -0.0751739 -0.16446725 0.064171091 0.036032777 -0.098917626 -0.11166843 -0.055629872 -0.1254048 -0.17707057 0.13999465 -0.30371618 0.019091094 0.013065683 -0.055484731 -0.033951383 -0.017210431 -0.15416658 0.017642343 0.078768194 -0.051836595 0.1629398 -0.016480906 0.043537952 -0.31170154 0.14723471 -0.22189508 -0.12703347 0.069179051 0.025321571 -0.054481864 -0.19039416 -0.16746584 0.10609276 0.15770559 -0.12633346 -0.057625651 0.0032503011 0.16821125 0.17360021 -0.05509438 0.024430385 0.11724022 0.13249661 -0.035630438 -0.039595168 0.065045081 0.15113401 0.19969474 -0.10942821 -0.10420269 0.28009307 0.042716928 0.018962067 -0.083594672 0.013940363 -0.032479152 -0.089195535 -0.13919233 -0.057757813 0.213249 -0.20259288 -0.32229087 -0.0043396438 0.20580411 0.091689229 -0.038648237 -0.033398982 -0.03775188 0.12427557 0.13183996 0.3621434 0.34263238 0.24028522 -0.042129073 0.28225163 0.32349876 0.01599385 -0.42996761 0.086952373 0.045011897 0.29120433 0.10396149 0.11253268 0.13714722 0.068033114 -0.26085275 -0.042207945 -0.21847856 0.0072234557 0.18273075 0.18889378 0.21367083 0.10608568 0.21084698 0.1334226 0.081682466 0.10371958 0.29387355 -0.029560478 0.03807456 -0.18266518 0.13289613 -0.010915231 0.10144348 0.016474389 0.051793423 -0.075805753 -0.056447849 0.0017937 -0.10961765 -0.044237942 0.12597972 0.17880809 0.11369357 0.17174308 0.29714292 -0.046712849 0.19153604 -0.012072098 0.1162363 0.11548469 0.16329181 0.12706318 0.00014750175 -0.017798506 0.17581056 -0.10958002 0.016219351 -0.089997992 0.0044226684 -0.056902122 0.17071196 -0.045355801 0.30343351 0.44944507 0.34040335 0.014505766 0.2690919 0.060396485 0.27021542 -0.061635181 -0.36055458 -0.013864636 0.038773432 0.11997748 0.068261974 0.096497089 0.19424351 -0.068031363 0.13462089 0.033968441 -0.0026430835 0.26651335 0.17871538 0.11664175 0.27199823 0.50973535 0.2611641 0.015925119 0.066209517 -0.015114479 0.024259347 -0.043056913 0.0098377373 -0.0026156467 -0.094836943 -0.10701885 -0.23169152 -0.32383221 -0.068531372 -0.15809633 0.16622172 -0.16923666 0.097261347 0.21308728 0.043483112 -0.10339196 -0.083160914 -0.094215229 -0.11545974 -0.12244207 -0.096835308 -0.21793427 -0.11797417 -0.10726649 0.059219483 -0.12776355 0.035620268 0.1447642 0.088598184 -0.17191651 0.092819363 -0.044654783 0.11806949 -0.25134987 -0.030767921 -0.19840918 -0.18093377 -0.25209132 -0.28653359 -0.28993997 -0.083130024 -0.242783 0.00067998742 -0.10583837 0.015037344 -0.10488368 0.15847062 0.0084736831 -0.0064290925 0.013251439 -0.082968757 0.079971738 0.032600675 -0.1337657 0.048147459 -0.0037024387 -0.0052844072 -0.16155298 0.11473967 0.082966156 -0.040297851 0.23511928 -0.067409471 -0.056704622 0.063584797 -0.017299855 0.093352117 0.07802476 0.12376758 -0.17004393 0.064908348 0.17812881 0.05769442 -0.13891491 -0.20602439 -0.173244 0.039169077 -0.031781245 -0.027280938 -0.12721239 -0.080555432 0.038677048 -0.16390924 -0.093846932 0.13672391 0.17458452 -0.016229169 -0.23151687 -0.11647666 -0.18748352 -0.15445925 -0.13046461 0.04158473 0.022225956 0.098753691 0.03287039 -0.17225592 -0.17400868 -0.084269933 0.079651259 0.080025338 -0.041272879 0.030081388 0.073497616 -0.19963861 -0.32357779 -0.1968215 -0.20528243 0.053540103 0.10917597 0.24832408 0.0044097728 -0.19445765 0.070338644 -0.15388489 0.022975642 0.14534196 0.087502986 0.024586333 -0.012383617 0.20604792 0.12829384 0.16795164 -0.13994837 -0.082884163 -0.19092228 -0.056592628 0.19266506 -0.037716594 0.01879175 0.079515979 -0.00431159 -0.22740495 -0.0025392475 0.11786392 0.096261881 0.21735208 0.015846098 -0.0060111498 0.027938427 -0.012237916 -0.21432012 -0.074008159 -0.043909609 -0.052883185 -0.075315997 0.13631199 0.36622715 -0.23095329 -0.31134906 0.03420211 -0.23306245 -0.14025064 0.034514394 0.059568021 -0.25455809 -0.040957574 -0.077176489 -0.11763947 0.090978771 0.087460466 0.054797035 -0.069496542 0.089246944 -0.071388267 -0.21277344 -0.13310708 0.14806105 0.014734081 -0.075999968 0.24935195 -0.11252173 -0.01653803 0.18830575 0.085688069 0.10511411 0.11369521 -0.48684326 -0.09548489 0.14726567 -0.14073764 -0.31768584 -0.039091088 -0.24008608 -0.12630449 0.19686845 0.041826379 0.017984303 -0.031301491 -0.085216664 0.33240908 0.08505591 0.13004419 -0.14698988 -0.13537394 -0.20833965 0.20225289 0.25562587 0.25848553 -0.32465038 -0.12844647 -0.0025174459 -0.090673901 0.18842326 0.26504102 -0.019498603 0.035521742 0.017513258 0.069063075 -0.085309334 0.13521276 -0.19038224 0.21611959 -0.10486495 0.17979324 0.15760571 -0.058282677 -0.15994835 -0.14566137 -0.29461545 0.16194066 0.087863363 0.025884194 -0.090163842 0.29082447 0.066117875 0.021769414 0.11073262 0.049629781 -0.072000995 0.032351039 -0.11282598 0.2130495 0.028447188 -0.36805886 -0.19143124 -0.084060259 -0.040041182 -0.049130134 0.095232308 -0.21494588 0.064047709 0.13760969 0.10493666 0.046935081 0.033873279 -0.056902081 0.09521202 0.16352078 0.0080146743 -0.036186233 0.12360077 -0.069207698 -0.13655718 -0.035787269 -0.089625038 -0.12730999 0.11981988 0.070442133 -0.17944424 -0.017481828 0.11484101 0.012998257 -0.025174161 0.068683594 -0.28617156 -0.30779824 0.071853265 -0.017972723 0.13939145 -0.054063171 -0.35576117 -0.23018795 -0.019975001 0.010570989 0.15184991 0.23266941 -0.006999345 -0.34190786 -0.35099435 0.055218492 0.0055989088 -0.099315897 -0.10475502 -0.17661285 -0.19084013 0.16413577 0.16435018 -0.085614517 -0.148866 -0.19198954 -0.078226991 -0.099844426 -0.019608768 0.060282297 -0.082142569 0.045428943 0.2110831 0.032244798 -0.087796904 0.13986593 -0.0074103195 -0.21014179 0.10260516 -0.0084374705 0.026088923 -0.01531445 -0.042909499 -0.13647841 -0.08982747 0.094389096 0.021055484 0.24004479 0.10231023 -0.22507776 0.0016523786 0.096900351 -0.09228158 0.074572816 -0.02897181 -0.086204357 -0.1290528 0.18359554 0.11472851 -0.083633736 0.23958685 0.10544343 0.033952817 -0.0093343798 0.19723397 -0.10835542 -0.14938459 0.22989704 -0.069501124 -0.048522182 0.32247934 0.25176898 -0.046319366 0.13175601 0.092897438 -0.045496698 -0.074654907 -0.26923156 -0.27901456 -0.043025799 0.10720567 -0.025900224 -0.21884847 -0.15540102 0.049963158 -0.0077020931 -0.055570167 0.18426077 0.26559517 0.058838606 -0.094796941 0.14397006 0.11050721 -0.26986811 -0.14431867 0.048227645 0.081232741 -0.038786907 -0.11400879 -0.15905592 -0.14917971 -0.093340747 0.0020850857 0.14032699 0.14744712 0.18607198 0.036121301 0.17950395 -0.051004853 0.043659706 0.098761603 0.28227463 -0.042616159 -0.023488518 -0.12237729 -0.0115499 -0.05644007 -0.18847707 0.089295074 -0.12458377 -0.10595467 -0.034375932 0.2258243 0.060426876 -0.26680347 0.19721207 0.18048362 -0.0046053417 -0.17636262 0.072298482 -0.0481757 -0.0073964847 0.190644 -0.088930704 0.019852351 0.10817214 -0.24713989 0.15419242 0.055780992 -0.0058661783 -0.23575829 -0.017163506 -0.087074958 -0.15435672 0.1566259 -0.042663369 -0.079450347 -0.015118775 0.067476638 -0.10531127 0.15729143 -0.16505095 -0.14992945 -0.056763202 -0.11209397 0.17027658 -0.085246973 -0.12337223 0.076702245 0.14464474 0.00089912914 0.28109524 0.11301435 -0.084505625 -0.042657144 -0.10150035 0.059888322 -0.21726857 0.034589939 -0.070792876 0.12041716 -0.095995069 0.06712766 0.10288014 -0.045512781 -0.1469056 -0.29909027 0.007139503 0.190716 0.35824752 0.15182553 -0.028627252 -0.013732522 -0.20405193 -0.064119078 0.093756765 -0.018466709 -0.14148305 0.31681806 0.5033716 0.35806522 0.15772869 -0.09555997 0.11794545 -0.24336188 -0.15849884 0.042254437 -0.091308579 0.20989668 -0.35323688 -0.029222712 -0.24323516 0.15206219 -0.069335535 0.028568543 0.083943389 0.11777704 0.0715122 0.085224405 -0.030443437 0.14171357 0.11897171 -0.038636915 0.13780893 0.095667519 -0.15055674 -0.06602516 0.13275906 0.28741592 0.13653743 0.34159935 -0.008005701 0.025674464 -0.063528597 0.23381439 -0.1401075 -0.053012345 0.05950924 0.099864386 -0.014559161 -0.13888711 -0.15132648 -9.4176641e-005 -0.28454807 -0.088845871 0.10791926 0.099929117 0.23247057 0.16694196 0.034070749 -0.054083247 0.012981917 -0.01996397 0.11285195 -0.18843764 -0.066497751 0.0097108129 0.37314919 0.14324832 0.034573287 -0.19447529 0.32388264 0.38148531 0.049317878 -0.068573467 0.076015882 -0.037368216 0.10529512 0.066183135 0.0098381164 -0.014165434 0.15083042 -0.012385578 -0.095498502 -0.052604035 -0.029097579 0.043712687 0.073883906 0.097311132 0.36471063 0.52540249 0.38547301 0.02135052 -0.15716937 -0.13271892 -0.1660274 -0.21992299 -0.18509927 0.0026421845 0.20776966 0.20704199 0.00091291266 -0.26679927 -0.00080617121 -0.015286034 0.097683974 -0.18909983 -0.077330425 -0.063061237 0.066908501 0.039767638 0.067736089 0.14302687 -0.01580471 -0.07318376 -0.069604099 -0.13062118 -0.092883319 -0.065957233 -0.036002181 -0.079489224 0.089932896 0.0023177033 -0.0080634365 -0.035704993 0.26493347 0.11350064 0.22747205 0.15252215 0.057200529 -0.10970267 -0.011021981 0.1105417 -0.019098816 0.028879806 -0.21986857 -0.15939015 0.092261724 -0.00045474953 0.19884795 0.045226347 -0.027051207 -0.090176098 0.1517987 -0.10464153 0.046570133 -0.0027111489 -0.034288332 -0.072415546 -0.02631337 -0.22055866 0.073131301 -0.13567878 -0.14123276 -0.084124923 0.1305069 0.2505722 0.0016377516 0.0014456285 0.099862471 -0.19642763 0.1067459 0.081623673 0.23395817 -0.17878756 0.032216661 0.063480847 0.22543652 -0.071356967 -0.1340308 0.024564745 -0.0015904127 0.14723653 0.09417706 -0.28707296 0.025357356 0.046010148 0.12341516 -0.1425277 -0.040158447 -0.059901156 -0.020704931 0.063520499 -0.016595053 0.041263845 -0.039824232 -0.061481804 -0.10300526 -0.17881133 -0.089606792 0.062124915 -0.0079746218 0.21671027 0.17407213 0.1066828 0.15182085 0.0095735826 0.1488795 0.01166308 0.23688376 -0.070563436 0.30173194 -0.28790495 0.20334548 0.025627719 -0.0017850247 0.017600739 -0.27251029 0.079469688 -0.045020197 -0.25593939 0.12544803 -0.071383454 0.09284652 -0.23475178 0.029949283 -0.0089373039 0.16724263 0.020988036 -0.17530258 -0.02957469 -0.31536147 0.25086671 -0.10693821 -0.12935226 -0.080611028 -0.17593984 -0.038990859 -0.072613336 0.16066366 0.0076402524 0.10007779 0.023240641 0.028552676 0.010119304 0.20142339 0.15917729 0.10706963 0.2946972 -0.17569368 -0.036589362 0.13640422 0.012125669 0.016943518 -0.12841012 0.29074511 0.036100753 0.012712123 0.015261337 0.14732638 -0.18654628 -0.19268534 -0.074197374 0.22682559 -0.33708951 0.16636358 0.059087012 -0.24604493 -0.058986641 0.10562339 -0.085720479 -0.080390587 0.18396243 -0.0051093083 0.23486382 0.097298943 0.17415901 -0.063860185 0.011286644 -0.056630813 -0.16622044 0.21649069 0.19345525 0.18279102 0.096839406 0.069732025 0.18316908 0.10614207 -0.13568015 -0.046528205 -0.089894496 0.23354261 -0.28271127 0.064533435 -0.17764334 0.17506158 -0.076942027 0.14184675 -0.23661296 0.020259012 -0.050909616 0.13242365 -0.096306644 -0.29243723 0.11739138 0.021247154 -0.13028313 0.18466485 0.037399907 0.21142171 0.037516546 0.066539951 -0.0058433968 -0.11012205 0.029589072 -0.0054295119 0.016083514 -0.075864933 -0.21255553 0.046731517 -0.055588011 -0.080854185 -0.14477497 -0.022309544 -0.21091188 -0.079994224 0.010402697 0.2931869 -0.31319308 0.073399343 -0.068939351 0.057795122 -0.1532613 -0.046930276 0.063518569 0.18220462 -0.2272941 -0.080169521 -0.030896541 0.10556098 -0.01618577 -0.14579885 -0.07855726 -0.023184353 0.16420262 0.52051485 -0.045128509 -0.055455457 -0.073275231 -0.030489894 0.014907212 -0.25071988 0.080840573 0.11459503 -0.10567016 0.071086355 0.048778776 -0.0056327237 -0.037010092 0.0092060529 -0.043255299 -0.17234339 -0.16617011 -0.010744482 0.10465238 -0.041534007 -0.1365221 -0.056590565 -0.16993442 0.079844974 -0.16627273 0.064381108 0.0059856256 0.22053958 0.26407605 -0.0018010417 -0.0043756338 -0.14638677 -0.14004348 -0.0051771598 0.12941843 0.018700603 -0.058985807 0.02236468 -0.22363624 -0.099945471 0.01548535 0.20977175 1.9212148e-005 -0.035132729 -0.10524093 -0.098518386 0.21832052 -0.097258464 -0.076340944 0.030417824 -0.069814898 0.04502859 0.0024816247 0.035488468 0.093261205 0.023283625 0.0094522154 -0.14674236 0.12138158 0.24824996 0.15527642 0.1674954 0.021888027 -0.032737959 0.14488895 0.12826669 -0.11982408 -0.18625222 0.091661118 0.19878772 0.077572875 0.17391749 0.13072473 -0.178376 -0.041090429 -0.049450282 -0.26435083 -0.043570686 -0.14358199 0.26800328 0.23870884 -0.032898158 0.049736213 -0.21905904 -0.044887815 0.021039188 -0.011765518 0.05873026 -0.22621621 -0.23734583 0.11343385 0.2134621 0.17012352 0.37244198 0.39909014 0.089247532 -0.024944412 0.34745243 -0.017203124 -0.071201824 -0.12210801 -0.10614789 0.10129474 0.086790174 -0.012360645 -0.061083894 0.093133673 0.14894636 0.12132546 0.07328371 0.074263513 0.061446246 0.047313955 0.045338932 0.060264751 -0.090393335 0.039095346 -0.035713051 -0.17295806 0.098746359 0.085737415 0.034679584 -0.23690858 -0.23212287 -0.074245505 -0.039368216 0.051528979 0.09880878 -0.10172276 -0.016117774 -0.10197121 -0.12330183 -0.09451557 -0.08141882 -0.045169659 -0.057421237 0.015691863 -0.028929109 -0.0025313543 -0.041013341 0.084128767 -0.077876702 -0.25210112 0.033987645 -0.087710373 0.0079010054 -0.14610431 0.15558246 0.0068585072 0.34157026 -0.021778949 -0.015367826 0.17838514 -0.089037284 0.13041975 0.13483971 0.31307995 -0.1937001 0.042773228 0.091358721 -0.11687144 -0.10795356 0.11225121 -0.16145527 0.044400357 -0.026342437 0.11422099 -0.053484727 -0.13746014 -0.040605467 -0.084392555 0.00055750681 0.15887949 0.16800575 -0.12076162 -0.11029322 -0.13174576 0.15109073 -0.026383063 0.035848495 -0.0062453463 -0.12092081 -0.15444171 0.025655692 0.23197526 0.16272423 -0.22634986 0.025449259 0.12574761 0.096631847 0.037327331 0.19678096 0.1522444 -0.22831397 0.15049797 0.0044051423 0.18970393 0.18175693 0.10959563 -0.16892518 0.015428849 0.20097649 0.19636433 -0.18237238 0.015263427 -0.078914441 0.19352767 0.048699047 -0.13820045 0.036482643 -0.10888099 -0.060806397 0.14821666 0.032844167 -0.0069194757 0.11934819 0.059750229 -0.14790587 -0.20344839 0.11406975 -0.065714322 -0.10035662 -0.0086118141 0.11062137 -0.066071332 -0.10439562 0.15513282 0.032381818 0.12322224 -0.28768814 -0.17235179 -0.34236342 0.0097389668 -0.15132353 0.17408708 -0.02835067 -0.012030355 -0.084236905 0.22983678 -0.00096782518 0.20065521 -0.10615789 0.1532656 -0.04596363 0.10433815 0.060140874 -0.072575308 0.038169567 0.062842675 -0.17654769 -0.048973553 -0.11168634 -0.069484882 -0.12523438 -0.010846456 -0.063197128 0.062843598 0.13058133 -0.11506537 0.072576903 0.11353164 0.076157615 0.096587501 0.19913895 0.20805138 -0.031615052 0.20405027 0.025226226 0.051458612 0.11076698 -0.14188083 0.19879244 -0.027284732 -0.11766205 -0.027512653 0.051887855 0.059805356 -0.2112637 -0.10357059 0.20486563 0.033412293 -0.11445899 0.077156641 0.074552156 -0.0433148 -0.01104793 0.14725806 -0.0016333982 -0.27307612 0.012924746 -0.11728192 -0.12505521 0.13861652 -0.14109477 0.017313784 -0.03663167 0.14048904 -0.059526183 -0.14312671 -0.11899821 -0.020885888 0.096890427 -0.27891418 -0.083993636 0.02316878 -0.28267857 -0.061863244 0.1253366 -0.022967413 0.11690119 -0.17980109 -0.099742353 -0.025743222 0.26978767 0.10575493 -0.10188202 -0.13499843 -0.0094403885 -0.01706221 0.0019574792 0.016851531 -0.47084776 0.18014178 0.091765821 -0.084785156 -0.086406492 -0.25086644 0.041571479 0.11312295 0.006193772 0.14367299 0.2056791 0.25883731 -0.12885699 -0.1170335 0.24438788 -0.066655084 -0.19233207 -0.14233127 -0.086057194 0.13855016 -0.062112141 -0.12466367 -0.025523057 -0.0041648848 0.1871102 -0.049288113 -0.054730356 -8.8060136e-005 0.063520409 0.024006421 -0.12157975 -0.083269708 -0.19579226 -0.10859087 -0.10372867 0.098399691 0.058712192 -0.020893326 -0.11770796 0.08697845 0.19754541 -0.11509994 0.026875965 0.35802612 -0.23042548 -0.09654323 0.19083411 0.1158805 0.079903863 0.14770874 -0.14501233 0.067205891 0.046616621 -0.13360941 0.17633423 0.15826884 0.065912299 -0.083788939 -0.0063705472 -0.063743919 0.04006495 -0.022619065 0.022866042 -0.011185891 0.25436339 0.11627506 -0.1067729 -0.084032185 -0.15389113 0.025050221 0.088117585 -0.10008062 -0.079619594 0.2605063 0.12760837 -0.01685868 -0.017810069 0.046913709 -0.058645979 0.078901455 0.0049662902 -0.074341841 0.024168169 -0.06210722 -0.070108525 0.19035149 0.13846925 -0.045703072 0.072943956 -0.19506775 -0.050467867 0.029735528 -0.011559643 -0.14471583 0.083874114 -0.051081426 0.021987801 -0.15690657 0.1910868 0.063010469 0.12848766 -0.027949983 0.15747118 -0.089115627 -0.052420113 0.26114953 -0.004218861 0.052401949 0.054707035 0.077415019 0.074826621 0.12230454 0.099501252 -0.20775685 -0.14254043 -0.097181469 -0.011296307 0.031135764 -0.051096354 0.055461466 -0.0015543079 0.18568754 -0.073110044 0.025628218 0.12548868 0.059139073 0.086857952 0.048813816 -0.14918934 0.029976675 -0.018886589 0.073925778 0.25598523 -0.12769704 0.076886721 -0.13257229 0.034286324 -0.13992387 -0.083446927 0.054339901 -0.14423902 0.080860086 0.025389634 0.33945033 0.0043546082 -0.0616717 0.083356045 0.12733428 0.016902801 -0.026568588 0.10172486 0.1172938 0.062690206 -0.082330078 -0.042100739 -0.0042670812 0.0031558373 -0.082926899 -0.019607112 0.083903953 -0.037971534 -0.027134581 -0.0075973077 0.034946237 0.067214943 -0.11045773 0.0035458871 -0.11761171 0.1690889 -0.18700673 0.11135423 -0.088746332 0.39395833 -0.028363289 0.065196879 -0.055940144 -0.1692061 0.081965692 0.14014792 0.074322313 0.033918202 0.11457628 -0.05651496 -0.15124415 -0.11714779 0.0064068367 0.085269451 0.098497048 -0.14100601 -0.17589062 -0.0045961114 0.031619526 -0.070232786 0.14844052 -0.015969984 0.061797909 -0.22059092 -0.0052815024 -0.19486114 -0.15813935 -0.06947998 0.026720097 0.025268944 -0.11820763 -0.075420119 0.062274005 0.016091516 0.051293921 -0.065287821 0.17922258 -0.047250148 -0.043462794 0.049827494 0.14289026 0.17839696 0.036828347 -0.17662321 0.059326977 -0.027378822 -0.16619578 -0.069272719 -0.00068379263 0.029277246 -0.075526342 -0.087077402 0.12074841 0.15527184 -0.12779494 -0.14079662 0.22905539 -0.10362346 -0.092958003 0.028867805 0.19775259 -0.26435629 -0.0029358291 -0.052461334 -0.14637393 -0.21646063 -0.1847329 0.23374046 0.063273497 -0.039172105 0.045083482 0.19830364 0.097548902 -0.057508282 0.053239416 0.0032072796 0.096533149 0.022886384 -0.14958207 0.12312531 -0.018348072 0.18126088 0.1370796 -0.026717994 -0.092798844 -0.04527178 0.11132406 -0.11111323 0.019183883 -0.085363969 -0.01107236 -0.098549351 -0.029886289 0.06886147 -0.24384426 -0.091472372 -0.097547285 0.21387535 0.030390896 0.2144545 0.044540036 -0.053025071 0.010057548 0.44049951 0.26721257 0.015990509 0.0063125771 0.039072547 -0.17611296 -0.054814234 0.20638996 0.01091826 0.18705232 -0.023400474 0.097750433 0.18299691 0.23409741 0.084356561 -0.11450017 0.10517369 0.057705071 -0.24327786 -0.14144939 0.08179608 0.12788795 -0.03907229 -0.051216487 -0.066410728 -0.056281433 -0.10321905 -0.23264925 -0.14229812 -0.036661584 -0.29700541 -0.022482568 -0.020665381 -0.05037941 0.021968557 0.032778874 0.071342476 -0.046893202 0.08625263 0.10167283 0.28313535 -0.049450137 -0.050852507 -0.0053955377 0.0040734829 -0.05997397 0.31770214 0.089645796 0.06146979 -0.20029695 -0.28163269 -0.10526466 0.085506372 0.19520649 0.13473262 0.062178157 -0.12563665 0.010169213 -0.22034395 0.045401365 -0.031941596 0.051115073 -0.034179337 -0.25460675 -0.14563039 -0.066044755 0.023916408 -0.11559884 0.09538804 0.17467432 -0.04558669 0.031602103 0.021512562 -0.12834214 -0.013214941 -0.01479149 0.015620047 -0.027531808 -0.016546253 -0.34276474 -0.11718149 -0.16426656 0.075737111 0.017364794 -0.035689961 -0.13049847 0.096817486 0.18347573 0.24461378 0.062638164 0.11185618 -0.29265666 -0.079088591 0.0037872295 0.11949664 0.042000171 0.022978146 -0.020816408 0.084985375 -0.060899615 -0.19152422 0.3490878 0.11016428 -0.13549829 0.12762216 -0.076898493 -0.10316496 -0.26674843 -0.10250438 -0.025971701 0.0601089 0.003723386 -0.10190447 0.33542255 -0.30148274 0.053281933 -0.010399607 0.15353821 -0.036295481 0.036319491 -0.0093580158 -0.1553313 0.086743824 0.0048410804 -0.13321276 -0.043873385 -0.1054834 0.19869004 0.19384928 -0.037328549 -0.13772842 0.024917744 0.15172797 0.32158542 0.057580754 0.27990147 -0.26035523 -0.060874917 0.03385371 -0.049379949 0.23548947 0.081673868 -0.11221571 0.025042821 -0.020573195 0.24283539 -0.030120034 0.14264351 -0.095354296 0.066732466 0.14416963 -0.076748945 0.11147361 0.14170668 -0.0006692725 0.1483437 -0.082889594 0.088789165 0.12254781 0.25698221 -0.065394953 -0.17095421 0.13445102 0.052827198 -0.10044976 0.041602131 -0.035344627 -0.28330705 0.058234531 0.12497626 0.046821155 0.072001427 -0.088725269 0.16157103 -0.080896683 0.058034834 -0.024798334 -0.11861049 -0.067727216 -0.13753046 0.030632179 0.047728512 -0.02905087 -0.028315794 0.029675169 0.050213818 -0.023699148 0.05811752 0.067504548 -0.090649068 -0.11255959 0.015366913 -0.033546288 -0.077915788 0.045071241 -0.081867948 0.14105362 0.0082787527 0.27437398 -0.034301337 0.1504411 0.19862515 -0.11625083 -0.055037409 0.1446251 0.046128634 -0.046648446 0.1363035 -0.046089262 0.0042650145 0.088049531 -0.084778175 0.19368888 -0.21708252 0.081086069 0.10703848 -0.15179218 0.053240582 0.0032775486 0.056402866 -0.0086554531 -0.081719711 0.13221908 -0.0031884646 -0.018686965 -0.012997189 -0.094926581 -0.11103331 -0.18747655 -0.19668823 -0.053815518 -0.049265362 -0.031784207 0.078929 -0.09125711 0.068621591 -0.088627838 -0.21675147 0.10928817 0.084229678 -0.21652247 0.024443213 -0.15741266 0.13975649 -0.21886149 -0.18141416 0.077701055 -0.12141325 0.10926199 -0.00095052616 0.26691282 0.039469704 0.14940888 -0.019832699 -0.10850034 0.018261753 0.13826644 0.16092835 -0.019660095 -0.082120366 0.12067154 -0.18217532 0.055423997 -0.050692126 -0.01061988 -0.14636871 -0.27357009 -0.059391711 0.045445509 -0.07592722 0.083243899 0.23904118 0.10065982 0.14474094 -0.031309176 -0.05848166 -0.074473694 0.0094311945 -0.20666228 -0.07031545 0.18670411 -0.15322904 0.032593116 -0.040713169 0.053418901 -0.1104093 0.23632236 -0.10540565 0.091763109 0.086211137 0.15402204 -0.039032385 -0.11412518 0.26944146 -0.12033005 0.11644479 -0.13319172 0.064777315 -0.0085075144 0.16189253 -0.1301021 0.084434643 0.16347554 0.067614444 0.033503104 0.051619992 0.16072729 0.029612882 0.13389409 -0.20155427 -0.21442778 0.061627861 -0.15044072 0.0340214 -0.029950963 -0.19441141 -0.11604264 -0.020956414 -0.17198256 -0.093021698 -0.14006339 0.097010478 0.13422486 -0.019433903 0.071705922 0.12304521 0.17915267 -0.045456897 -0.089427531 -0.099504739 -0.12321679 0.023924571 -0.21038342 0.11469906 0.051586546 -0.11740499 -0.020041076 0.018611724 -0.069515161 0.0527835 -0.15401359 0.18998097 -0.20620202 -0.041132014 0.12309505 -0.068057679 -0.055715781 0.072855562 -0.066893823 -0.0025406226 -0.24619883 -0.10606495 -0.035815317 0.12517363 0.0061426507 -0.08507812 -0.05694652 -0.012427036 0.041726656 0.11286436 0.21499224 -0.13938953 0.12327649 0.058272727 -0.0014297542 0.05857252 0.098773457 1.8787257e-006 0.034967307 -0.12284204 -0.013060353 0.042154308 -0.14546145 -0.020441977 -0.0014128194 0.083035201 0.30245423 -0.11338598 0.044658463 0.15326445 -0.0088375295 -0.14187269 0.06314303 -0.018764762 -0.32773376 0.084317207 -0.19723299 -0.025457149 -0.010731517 -0.14113264 -0.02347091 0.073124111 0.11933243 0.21172124 -0.11132588 0.085320212 0.083219409 -0.30874902 0.081936426 0.056967933 -0.22847603 -0.006637326 0.19556336 -0.13957168 -0.12736049 -0.074272066 0.089288823 -0.25430939 0.08745195 0.034688935 -0.14705411 -0.10972569 0.082492389 0.069104813 0.098273024 0.017354129 -0.016451834 0.079937816 -0.04942137 0.016253302 -0.22094889 0.16347617 0.0028488338 0.11891149 -0.0052355016 0.16932666 -0.022221675 0.051835664 0.0027387741 -0.097984478 0.099604279 -0.0071359491 0.1372337 -0.065314539 0.15659413 0.23365416 -0.074307077 0.20459986 0.116354 0.12814476 0.0086327335 0.04330381 0.0061401529 0.27802765 0.034682896 0.14739531 -0.13305603 0.13552196 -0.02655456 -0.19296877 0.052220538 -0.23496278 0.1529156 0.068571895 0.0037750087 -0.2049572 0.046387963 -0.073667355 -0.10811517 -0.03167918 0.075054526 -0.33103561 -0.21681714 -0.10975873 -0.093659036 -0.15669739 0.076452993 0.10572633 0.21517318 -0.12753814 0.046545736 0.1511476 -0.051058702 -0.053534474 0.044357054 0.0014633548 -0.13039002 0.024129588 -0.10820946 0.22245672 0.053571001 0.017016245 0.0067254375 0.10456389 -0.025593299 -0.056427412 0.10512525 -0.04361321 0.0079812491 -0.1670664 0.059735142 -0.01355101 -0.28432819 -0.009779864 0.012722374 -0.020076253 -0.0067071305 -0.11769021 -0.024782624 -0.167666 0.023469891 0.1095203 -0.082726628 0.044938728 0.039183971 0.0085136769 0.070358343 -0.087445863 0.050353762 0.017443959 -0.16230683 -0.29147449 0.045758989 0.0050384765 -0.070877768 0.17764497 0.0069691991 -0.049544867 -0.19811431 0.0020048537 -0.011325508 0.0042588068 -0.15232165 -0.0069515272 0.21097279 0.011707388 -0.10952143 0.041141544 0.11167257 0.073669426 -0.08544381 -0.0063851788 -0.13288938 -0.061830267 -0.26447535 -0.039027922 -0.22664578 -0.28298429 0.23647967 0.082249179 0.24822332 0.096772768 0.0089468881 0.11558563 0.0007181096 0.098979555 0.10562509 -0.027287861 0.13152641 -0.041071087 -0.045544703 -0.074307494 0.079672359 0.0077208127 0.11933685 -0.010307965 0.068651989 -0.37741995 0.1719978 0.0084062442 0.17214169 0.10059822 0.10766128 -0.020054204 -0.10776234 0.073557198 0.075228363 -0.11416802 -0.033511177 0.033933565 -0.15535571 -0.24035329 -0.084464543 -0.0014989256 0.056513514 -0.1719822 0.29129893 0.026584171 -0.075767234 0.096138522 0.10939425 0.014501772 -0.013118375 -0.23236169 -0.14235391 0.13599695 0.041339241 -0.098142684 0.13089025 0.15323259 -0.18602712 -0.07893157 0.16064164 0.0060225455 0.018029789 -0.045168858 0.090255804 0.11669895 0.19109604 -0.0041737705 0.029458536 0.15220705 -0.10582221 0.0034340082 0.12626706 0.021492075 0.089505471 -0.060320403 0.062040545 0.066649251 -0.16541032 0.010499433 0.16168764 0.072962664 0.0076690516 0.0095516564 -0.25899708 -0.067060135 -0.20171222 -0.17194636 -0.0079509085 -0.054004889 -0.123271 -0.013090801 0.031814445 -0.20663801 -0.027366402 0.095444053 -0.19309072 -0.14645171 0.11218204 -0.1263265 0.13979363 -0.25242788 0.014843026 -0.1345859 0.17827328 0.086550251 0.085245579 -0.21920064 -0.25333154 0.12670054 -0.22433989 -0.17481539 0.17068094 0 0'
p24
tp25
bsS'feature_extractor'
p26
cobject_recognition_toolkitd_ext
HogFeatureExtractor
p27
(tRp28
(S'22 serialization::archive 10 1 0\n0 0 0 0 0 64 128 16 16 8 8 8 8 9'
p29
tp30
bs.